File: data/aluminum_2T/Transport_results/uii_KS_Te1eV_Ti1eV/thermal_conductivity.dat
Thermal Conductivity [erg/s/cm/K]
0.028 1.8169
0.056 2.05014
0.084 2.53457
0.112 3.24152
0.14 2.75944
0.168 2.82172
0.196 2.86579
0.224 2.60403
0.252 2.60309
0.28 2.33736
0.308 2.19144
0.336 2.18338
0.364 2.01104
0.392 1.98745
0.42 1.9122
0.448 1.83401
0.476 1.76268
0.504 1.66665
0.532 1.68079
0.56 1.60844
0.588 1.73708
0.616 1.86912
0.644 1.91235
0.672 2.42171
0.7 2.74185
0.728 2.91183
0.756 2.9499
0.784 2.92984
0.812 2.88691
0.84 2.83755
0.868 2.84312
0.896 2.79078
0.924 2.75013
0.952 2.73197
0.98 2.73324
1.008 2.71591
1.036 2.72622
1.064 2.75165
1.092 2.6767
1.12 2.61318
1.148 2.60833
1.176 2.75251
1.204 2.75235
1.232 2.72414
1.26 2.7491
1.288 2.7554
1.316 2.81234
1.344 2.87159
1.372 2.82922
1.4 2.77443
1.428 2.75146
1.456 2.71959
1.484 2.68251
1.512 2.67327
1.54 2.85853
1.568 2.9419
1.596 2.92088
1.624 2.88771
1.652 2.89136
1.68 2.908
1.708 2.87341
1.736 2.85434
1.764 2.90888
1.792 2.91392
1.82 2.874
1.848 2.90877
1.876 3.02274
1.904 3.02512
1.932 3.00596
1.96 2.98859
1.988 2.95869
2.016 2.92833
2.044 2.9381
2.072 2.94324
2.1 2.92875
2.128 2.98648
2.156 2.95541
2.184 2.93233
2.212 2.89791
2.24 2.88058
2.268 2.86451
2.296 2.83988
2.324 2.82154
2.352 2.82766
2.38 2.81893
2.408 2.80131
2.436 2.78894
2.464 2.83032
2.492 2.83303
2.52 2.85231
2.548 2.83705
2.576 2.80768
2.604 2.8335
2.632 2.88165
2.66 2.86331
2.688 2.83609
2.716 2.82108
2.744 2.80385
2.772 2.79598
2.8 2.77401