File: data/aluminum_2T/Transport_results/uii_KS_Te10eV_Ti1eV/thermal_conductivity.dat
Thermal Conductivity [erg/s/cm/K]
0.028 0.88113
0.056 4.88432
0.084 5.91216
0.112 4.58351
0.14 4.3967
0.168 4.50933
0.196 4.35625
0.224 5.16142
0.252 5.06052
0.28 5.14399
0.308 5.06023
0.336 5.47516
0.364 5.29792
0.392 4.9346
0.42 4.75232
0.448 4.77554
0.476 4.51296
0.504 4.36369
0.532 4.18021
0.56 4.03835
0.588 4.00634
0.616 4.03841
0.644 4.05394
0.672 3.98971
0.7 4.17075
0.728 4.16462
0.756 4.12876
0.784 4.43233
0.812 4.31813
0.84 4.33407
0.868 4.25607
0.896 4.17069
0.924 4.27477
0.952 4.69041
0.98 4.65134
1.008 4.52093
1.036 4.4746
1.064 4.45096
1.092 4.51675
1.12 4.41941
1.148 4.3665
1.176 4.26345
1.204 4.22366
1.232 4.13821
1.26 4.16231
1.288 4.17894
1.316 4.15747
1.344 4.07819
1.372 4.04003
1.4 3.98762
1.428 3.97629
1.456 3.93978
1.484 3.89604
1.512 3.85318
1.54 3.84521
1.568 3.81056
1.596 3.78382
1.624 3.77489
1.652 3.71704
1.68 3.7756
1.708 3.98531
1.736 4.06664
1.764 4.05413
1.792 4.06665
1.82 4.09582
1.848 4.16579
1.876 4.23244
1.904 4.31795
1.932 4.37027
1.96 4.39524
1.988 4.35063
2.016 4.31831
2.044 4.32669
2.072 4.42819
2.1 4.43055
2.128 4.37915
2.156 4.34957
2.184 4.32623
2.212 4.30365
2.24 4.32111
2.268 4.43521
2.296 4.46535
2.324 4.45467
2.352 4.40846
2.38 4.39174
2.408 4.34844
2.436 4.33722
2.464 4.36462
2.492 4.34692
2.52 4.31093
2.548 4.28482
2.576 4.25647
2.604 4.28625
2.632 4.31437
2.66 4.30442
2.688 4.26195
2.716 4.23743
2.744 4.20303
2.772 4.19128
2.8 4.18649