File: data/aluminum_2T/Transport_results/uii_KS_Te3eV_Ti1eV/thermal_conductivity.dat
Thermal Conductivity [erg/s/cm/K]
0.028 0.408641
0.056 1.07824
0.084 2.84802
0.112 2.60468
0.14 2.28752
0.168 2.12571
0.196 2.36611
0.224 2.24206
0.252 2.03975
0.28 2.11451
0.308 2.23296
0.336 2.37636
0.364 2.72814
0.392 3.13206
0.42 3.04255
0.448 2.889
0.476 2.82445
0.504 2.74018
0.532 2.80821
0.56 2.75306
0.588 2.8107
0.616 3.00405
0.644 2.93917
0.672 2.92343
0.7 2.83415
0.728 2.86307
0.756 2.90094
0.784 2.83521
0.812 2.94612
0.84 2.92967
0.868 2.8601
0.896 2.7842
0.924 2.75241
0.952 2.7075
0.98 2.74047
1.008 2.8475
1.036 2.80035
1.064 2.76765
1.092 2.71261
1.12 2.66616
1.148 2.65141
1.176 2.59835
1.204 2.64099
1.232 2.58543
1.26 2.53845
1.288 2.59421
1.316 2.6307
1.344 2.57733
1.372 2.5415
1.4 2.49078
1.428 2.44745
1.456 2.43015
1.484 2.42424
1.512 2.38067
1.54 2.39492
1.568 2.37403
1.596 2.41547
1.624 2.38007
1.652 2.43866
1.68 2.8208
1.708 3.00309
1.736 2.97494
1.764 2.95774
1.792 3.02638
1.82 3.0488
1.848 3.01735
1.876 3.012
1.904 3.1238
1.932 3.20356
1.96 3.2805
1.988 3.27888
2.016 3.23062
2.044 3.20407
2.072 3.21447
2.1 3.19502
2.128 3.16513
2.156 3.19071
2.184 3.24036
2.212 3.2402
2.24 3.24386
2.268 3.26844
2.296 3.24248
2.324 3.30809
2.352 3.34997
2.38 3.34758
2.408 3.31519
2.436 3.29579
2.464 3.27904
2.492 3.25718
2.52 3.25625
2.548 3.24368
2.576 3.2747
2.604 3.31381
2.632 3.36013
2.66 3.38167
2.688 3.38377
2.716 3.39156
2.744 3.39693
2.772 3.42221
2.8 3.42757