File: data/aluminum_2T/Transport_results/uii_KS_Te30eV_Ti1eV/thermal_conductivity.dat
Thermal Conductivity [erg/s/cm/K]
0.028 4.08958
0.056 2.08469
0.084 2.1842
0.112 4.36258
0.14 4.07576
0.168 4.27721
0.196 5.3442
0.224 6.92676
0.252 7.3537
0.28 7.61488
0.308 9.10292
0.336 9.74819
0.364 9.96757
0.392 9.58272
0.42 8.98816
0.448 8.71525
0.476 8.69816
0.504 8.68066
0.532 8.74197
0.56 8.25469
0.588 8.11606
0.616 7.79659
0.644 7.97091
0.672 8.63364
0.7 9.2871
0.728 10.0695
0.756 10.0817
0.784 9.88682
0.812 9.57983
0.84 9.46422
0.868 9.55564
0.896 9.5979
0.924 10.4312
0.952 10.6749
0.98 10.8033
1.008 10.7624
1.036 10.5676
1.064 10.4172
1.092 10.1534
1.12 10.0478
1.148 9.93269
1.176 9.82145
1.204 9.75179
1.232 9.56804
1.26 9.43448
1.288 9.64701
1.316 10.1936
1.344 10.2553
1.372 10.327
1.4 10.1404
1.428 10.0161
1.456 9.94859
1.484 9.76123
1.512 9.74693
1.54 9.73908
1.568 9.82108
1.596 9.7876
1.624 9.69211
1.652 9.59303
1.68 9.49695
1.708 9.35222
1.736 9.34411
1.764 9.37427
1.792 9.69672
1.82 10.0295
1.848 9.96154
1.876 9.86956
1.904 9.77902
1.932 9.63229
1.96 9.5279
1.988 9.60342
2.016 9.60938
2.044 9.61172
2.072 9.70086
2.1 9.77482
2.128 9.80401
2.156 9.79756
2.184 9.66983
2.212 9.60799
2.24 9.55673
2.268 9.56216
2.296 9.52183
2.324 9.59108
2.352 9.51201
2.38 9.44862
2.408 9.43289
2.436 9.40011
2.464 9.37162
2.492 9.4659
2.52 9.53237
2.548 9.77058
2.576 9.71425
2.604 9.67394
2.632 9.64581
2.66 9.62487
2.688 9.57019
2.716 9.63062
2.744 9.57099
2.772 9.59959
2.8 9.68737